# Created by:        SpecsLab2, Version 2.77-r27212
# 
# XY-Serializer Export Settings: as follows
#   Comment Prefix:           #
#   Counts Per Second:        yes
#   Kinetic Energy Axis:      yes
#   Separate Scan Data:       no
#   Separate Channel Data:    no
#   External Channel Data:    no
#   Transmission Function:    no
#   ErrorBar:                 no
# 
# Group:             Si_sub
#
# values in kinetic energy
# Region:            over_1400eV
# Acquisition Date:  05/19/11 09:21:25
# Analysis Method:   XPS
# Analyzer:          PHOIBOS HSA3500 DLSEGD 150 R6[HWType 30:15] DLSEGD
# Analyzer Lens:     MediumArea:1.5kV
# Analyzer Slit:     1:0.2x20\1:0.25x20
# Scan Mode:         FixedAnalyzerTransmission
# Number of Scans:   1
# Curves/Scan:       1
# Values/Curve:      1303
# Dwell Time:        0.15
# Excitation Energy: 1400
# Kinetic Energy:    100
# Pass Energy:       30
# Bias Voltage:      80
# Detector Voltage:  1950
# Eff. Workfunction: 4.387
# Source:            AMC-Monochromator
# Remote:            RemoteInput
#                    test comment 1
#
# RemoteInfo: RemoteInput
# Parameter: "ADC channel 1 active" = true
# Parameter: "    channel 1 name" = TEY (old: I0)
# Parameter: "    channel 1 input scaling" = 1.000000
# Parameter: "ADC channel 2 active" = false
# Parameter: "    channel 2 name" = 3
# Parameter: "    channel 2 input scaling" = 1.000000
# Parameter: "ADC channel 3 active" = true
# Parameter: "    channel 3 name" = I0 (old: TEY)
# Parameter: "    channel 3 input scaling" = 1.000000
# Parameter: "ADC channel 4 active" = false
# Parameter: "    channel 4 name" = 4
# Parameter: "    channel 4 input scaling" = 1.000000
# Parameter: "ADC channel 5 active" = false
# Parameter: "    channel 5 name" = 5
# Parameter: "    channel 5 input scaling" = 1.000000
# Parameter: "ADC channel 6 active" = false
# Parameter: "    channel 6 name" = 6
# Parameter: "    channel 6 input scaling" = 1.000000
# Parameter: "ADC channel 7 active" = false
# Parameter: "    channel 7 name" = 7
# Parameter: "    channel 7 input scaling" = 1.000000
# Parameter: "ADC channel 8 active" = false
# Parameter: "    channel 8 name" = 
# Parameter: "    channel 8 input scaling" = 1.000000
# Parameter: "Logfile" = 

# Cycle: 0
#
# Cycle: 0, Curve: 0
# scaling factors added
#
# ColumnLabels: energy counts/s scaling
#
100  8974.5144  1
101  8422.512  1
102  8985.2648  1
103  8437.5895  1
104  8783.6797  1
105  8479.8148  1
106  8785.5575  1
107  8635.5218  1
108  8112.6254  1
109  8180.9431  1
110  8024.5746  1
111  8406.5615  1
112  8476.6684  1
113  8031.6321  1
114  8006.892  1
115  8260.0848  1
116  7869.4411  1
117  8000.9121  1
118  7754.0894  1
119  7872.1048  1
120  7561.1845  1
121  7975.0635  1
122  7495.7446  1
123  7797.6254  1
124  7501.1406  1
125  7233.7431  1
126  7443.2992  1
127  7594.3539  1
128  7439.8241  1
129  7312.1047  1
130  7320.7429  1
131  7267.8323  1
132  7160.6408  1
133  7377.8954  1
134  7231.3886  1
135  7169.2666  1
136  7304.4548  1
137  7096.6204  1
138  7323.0599  1
139  6910.1453  1
140  7090.3824  1
141  7267.4357  1
142  6936.2621  1
143  7185.3467  1
144  6951.292  1
145  6790.3044  1
146  7170.7323  1
147  6979.3416  1
148  6602.7562  1
149  6993.9621  1
150  6802.0551  1
151  6579.7409  1
152  6842.3493  1
153  6984.0965  1
154  6900.9259  1
155  6786.5032  1
156  6734.8188  1
157  6525.4445  1
158  6628.9514  1
159  6741.6641  1
160  7024.0559  1
161  6730.1312  1
162  6295.1158  1
163  6541.2028  1
164  6663.4851  1
165  6907.6448  1
166  6760.5473  1
167  6055.3172  1
168  6637.7396  1
169  6683.0204  1
170  6956.5227  1
171  6976.5751  1
172  6703.709  1
173  7104.5498  1
174  6319.5744  1
175  6126.0825  1
176  5675.9798  1
177  6172.1509  1
178  5803.6125  1
179  5830.118  1
180  5616.4497  1
181  5064.5229  1
182  5497.5732  1
183  5338.6707  1
184  5087.651  1
185  5259.3446  1
186  5211.4114  1
187  5086.8008  1
188  5372.8379  1
189  5169.7849  1
190  4980.2742  1
191  5026.029  1
192  4862.1542  1
193  5135.3893  1
194  4823.9626  1
195  4694.4405  1
196  5248.9419  1
197  5212.5908  1
198  5101.1035  1
199  5250.9544  1
200  5237.2042  1
201  5349.0611  1
202  4760.7812  1
203  4902.1365  1
204  5066.1033  1
205  5223.3884  1
206  5050.0644  1
207  4960.0252  1
208  4984.2166  1
209  4812.2478  1
210  4964.8373  1
211  4891.8911  1
212  5141.0273  1
213  4577.8785  1
214  5069.341  1
215  5231.797  1
216  4720.6146  1
217  5035.8382  1
218  4928.1073  1
219  5160.8112  1
220  4817.0739  1
221  5317.8046  1
222  4992.7122  1
223  4937.5227  1
224  4980.5792  1
225  4859.9076  1
226  4925.1751  1
227  5299.8478  1
228  5201.8264  1
229  4814.9291  1
230  5121.7773  1
231  5432.5585  1
232  4880.7446  1
233  4873.3114  1
234  5274.5891  1
235  5133.2777  1
236  5178.07  1
237  5210.9964  1
238  5104.3197  1
239  5060.9968  1
240  5123.9055  1
241  5533.6928  1
242  5135.5086  1
243  5644.1448  1
244  5669.1719  1
245  5557.756  1
246  5553.165  1
247  5643.4949  1
248  5490.2759  1
249  5613.9358  1
250  5462.218  1
251  4995.3011  1
252  5132.6488  1
253  5389.9736  1
254  5764.2841  1
255  5501.4822  1
256  5780.8328  1
257  5746.538  1
258  5927.4935  1
259  5791.7847  1
260  5638.2543  1
261  5981.2939  1
262  5578.344  1
263  5816.4367  1
264  5720.6388  1
265  5827.8807  1
266  5454.5466  1
267  5392.1665  1
268  5257.2678  1
269  5207.5808  1
270  4922.9236  1
271  5267.7712  1
272  5181.1257  1
273  5123.3244  1
274  4631.8665  1
275  5055.3089  1
276  5019.8864  1
277  4796.7849  1
278  4784.5237  1
279  4615.9779  1
280  4885.4178  1
281  4987.1241  1
282  4783.5256  1
283  5576.3624  1
284  4582.3212  1
285  5012.864  1
286  5109.7739  1
287  5062.5139  1
288  4819.9339  1
289  4718.0324  1
290  4838.6286  1
291  5318.899  1
292  4705.7958  1
293  5029.6024  1
294  4691.939  1
295  4894.7119  1
296  4961.9617  1
297  4875.2783  1
298  4904.0916  1
299  5169.6051  1
300  4952.3552  1
301  4922.2286  1
302  4725.4825  1
303  5243.4784  1
304  5200.6768  1
305  4979.0408  1
306  5156.7006  1
307  4983.0775  1
308  5413.9929  1
309  4917.2485  1
310  5243.8677  1
311  5152.0171  1
312  5068.6211  1
313  4902.5  1
314  4682.9992  1
315  5330.8778  1
316  5098.654  1
317  4640.6178  1
318  4994.1943  1
319  5017.6861  1
320  4889.4986  1
321  5289.0117  1
322  5351.1626  1
323  5183.8298  1
324  5332.6867  1
325  5452.631  1
326  5944.1114  1
327  6273.8822  1
328  5784.6957  1
329  5126.2976  1
330  5361.2474  1
331  5057.3354  1
332  5572.9893  1
333  5366.5167  1
334  5442.7909  1
335  5128.2074  1
336  5381.3641  1
337  5388.8384  1
338  5156.0477  1
339  4915.99  1
340  5199.21  1
341  5449.8639  1
342  5297.8989  1
343  5556.687  1
344  5471.0929  1
345  5564.9405  1
346  5320.9431  1
347  5547.1841  1
348  5563.6647  1
349  5214.5391  1
350  5378.5014  1
351  5604.5932  1
352  5517.4043  1
353  5774.4992  1
354  6189.6742  1
355  5223.2453  1
356  5601.6835  1
357  5638.8628  1
358  5818.0451  1
359  5671.4444  1
360  5609.3805  1
361  5444.5506  1
362  5517.5271  1
363  5752.3197  1
364  5990.5238  1
365  5529.0321  1
366  5578.426  1
367  5685.9761  1
368  5692.5654  1
369  5616.7324  1
370  5734.7426  1
371  5686.6058  1
372  5672.4207  1
373  5668.0182  1
374  5822.13  1
375  6429.9271  1
376  5777.9099  1
377  6168.7579  1
378  6215.4908  1
379  5872.4889  1
380  6065.7778  1
381  6034.0694  1
382  6078.4369  1
383  6498.4842  1
384  5690.2712  1
385  6019.75  1
386  6092.9268  1
387  6235.818  1
388  6302.7986  1
389  6143.9082  1
390  6369.8285  1
391  6232.7829  1
392  5671.1388  1
393  5870.2819  1
394  6046.8642  1
395  6203.4028  1
396  6176.1542  1
397  6291.3547  1
398  6185.5891  1
399  6134.1187  1
400  6192.3261  1
401  6212.3652  1
402  5994.6346  1
403  6584.0272  1
404  6478.7043  1
405  6265.4017  1
406  5912.96  1
407  6302.9368  1
408  6210.2754  1
409  6906.9673  1
410  6653.3903  1
411  6645.6648  1
412  6254.1526  1
413  6594.7513  1
414  6139.8016  1
415  6674.6287  1
416  6521.8831  1
417  6783.532  1
418  6997.4447  1
419  6534.3387  1
420  6663.4392  1
421  6762.2352  1
422  7252.2868  1
423  6661.8887  1
424  6975.8886  1
425  6628.3292  1
426  6930.9098  1
427  7104.7596  1
428  7136.1986  1
429  6742.4032  1
430  7015.3932  1
431  6675.0249  1
432  6781.1135  1
433  7422.9918  1
434  7216.403  1
435  7350.9683  1
436  7772.0144  1
437  7298.0025  1
438  7379.7302  1
439  7393.4784  1
440  7858.6361  1
441  7602.0238  1
442  7714.4488  1
443  7509.3384  1
444  7731.4823  1
445  7777.6649  1
446  8023.3589  1
447  8212.0556  1
448  7809.8188  1
449  8373.2404  1
450  8248.4414  1
451  7966.1023  1
452  8090.5506  1
453  8197.0861  1
454  8250.9989  1
455  8443.3025  1
456  8228.9322  1
457  8592.4894  1
458  8094.2014  1
459  8538.6686  1
460  8626.3197  1
461  9097.2292  1
462  9066.358  1
463  9217.0289  1
464  8936.0061  1
465  9465.9709  1
466  9848.8544  1
467  9624.3241  1
468  9908.0669  1
469  10533.158  1
470  10404.424  1
471  10342.106  1
472  10481.993  1
473  10245.374  1
474  9646.1511  1
475  10031.465  1
476  9882.0597  1
477  10315.499  1
478  10397.986  1
479  10297.987  1
480  10820.338  1
481  11237.285  1
482  11351.18  1
483  12240.17  1
484  12210.038  1
485  13301.598  1
486  12776.008  1
487  12995.272  1
488  12820.889  1
489  12202.797  1
490  11828.784  1
491  11320.525  1
492  12013.524  1
493  10992.869  1
494  11190.44  1
495  10491.157  1
496  10930.949  1
497  11030.875  1
498  11892.505  1
499  11915.187  1
500  11437.414  1
501  12392.296  1
502  13211.092  1
503  15751.064  1
504  16416.521  1
505  17863.92  1
506  20018.434  1
507  20739.894  1
508  20750.141  1
509  18429.483  1
510  15440.499  1
511  14086.359  1
512  12517.635  1
513  10822.532  1
514  9939.1682  1
515  9444.0466  1
516  8796.9679  1
517  7687.7662  1
518  7339.5567  1
519  6966.8887  1
520  6208.4329  1
521  6046.1342  1
522  5769.7837  1
523  5907.4244  1
524  5834.0668  1
525  5453.7637  1
526  6050.5372  1
527  6043.2722  1
528  5861.362  1
529  5654.693  1
530  5703.7063  1
531  5664.6582  1
532  5929.3989  1
533  5681.2549  1
534  5686.9102  1
535  5520.7872  1
536  5760.2304  1
537  6070.7332  1
538  5752.4344  1
539  5551.254  1
540  5864.9068  1
541  5781.4981  1
542  5949.6484  1
543  5937.9142  1
544  5779.8399  1
545  5550.7897  1
546  5675.15  1
547  5864.4918  1
548  5761.1111  1
549  5897.6112  1
550  6248.6981  1
551  6107.6283  1
552  6131.3555  1
553  5852.0974  1
554  5965.5632  1
555  6519.3051  1
556  6088.768  1
557  6121.8688  1
558  6039.8891  1
559  6107.9622  1
560  5880.268  1
561  6134.8768  1
562  6016.5905  1
563  6032.2004  1
564  5790.5291  1
565  6261.0113  1
566  6078.6332  1
567  6435.1402  1
568  6237.4749  1
569  6773.3093  1
570  6719.1398  1
571  6610.9361  1
572  6656.6932  1
573  6205.165  1
574  6261.8786  1
575  6374.8483  1
576  6404.5647  1
577  6676.3769  1
578  6255.4807  1
579  6426.2133  1
580  6882.86  1
581  6503.3864  1
582  6203.1778  1
583  6561.393  1
584  6705.9129  1
585  6516.522  1
586  6432.1211  1
587  6697.7159  1
588  6284.2783  1
589  6490.5399  1
590  6440.2122  1
591  6574.6336  1
592  6586.0254  1
593  6375.0311  1
594  6575.0261  1
595  6272.53  1
596  6654.7527  1
597  6748.4656  1
598  6439.7366  1
599  6436.3113  1
600  6870.1443  1
601  6370.2837  1
602  6793.4654  1
603  7128.1631  1
604  6805.4012  1
605  7135.8934  1
606  7074.707  1
607  6837.2285  1
608  6911.3487  1
609  7066.282  1
610  6967.8782  1
611  6875.9668  1
612  6971.1903  1
613  7197.8163  1
614  7230.7379  1
615  7035.075  1
616  7000.8077  1
617  7281.02  1
618  6721.5567  1
619  7030.5305  1
620  7469.0837  1
621  7251.3464  1
622  7236.5227  1
623  7166.2945  1
624  7258.5373  1
625  7095.9951  1
626  7531.651  1
627  7769.1572  1
628  7287.1418  1
629  7820.5572  1
630  7724.1022  1
631  7535.9385  1
632  7810.1695  1
633  7847.8227  1
634  7239.1218  1
635  7587.1255  1
636  7475.3437  1
637  7911.6271  1
638  7454.141  1
639  7526.5391  1
640  8281.7004  1
641  7096.6245  1
642  7695.33  1
643  7831.7752  1
644  7683.4602  1
645  7582.4372  1
646  8101.6124  1
647  7919.8012  1
648  7284.2705  1
649  7885.1349  1
650  8249.1145  1
651  8260.2792  1
652  8189.5387  1
653  8162.1275  1
654  7994.9863  1
655  8047.7887  1
656  8113.4573  1
657  8473.3731  1
658  8588.8618  1
659  8127.4065  1
660  8220.2053  1
661  8574.3511  1
662  7917.7913  1
663  8508.2253  1
664  8304.2079  1
665  8454.4303  1
666  8405.6928  1
667  8185.4303  1
668  8324.5712  1
669  8438.773  1
670  8411.685  1
671  7834.0707  1
672  8355.5749  1
673  8379.3244  1
674  8718.2604  1
675  8494.2373  1
676  8488.8225  1
677  8668.6245  1
678  8850.6886  1
679  8651.1158  1
680  8953.406  1
681  8898.8795  1
682  9028.0634  1
683  8528.4801  1
684  8580.0034  1
685  8926.9148  1
686  8782.224  1
687  8834.3842  1
688  8553.002  1
689  8983.0077  1
690  8973.8248  1
691  9037.6789  1
692  9070.7068  1
693  9211.2066  1
694  9012.9477  1
695  9422.9699  1
696  9210.4058  1
697  9321.8327  1
698  9213.3683  1
699  8963.8827  1
700  9079.6861  1
701  9337.5214  1
702  9164.1535  1
703  8973.7482  1
704  9190.9068  1
705  9168.6492  1
706  9138.1881  1
707  9621.5498  1
708  9161.2751  1
709  9423.505  1
710  9332.6162  1
711  9844.2752  1
712  10542.604  1
713  11590.82  1
714  11318.889  1
715  9965.6641  1
716  9467.8465  1
717  10078.895  1
718  9478.9597  1
719  9539.26  1
720  9754.6349  1
721  9342.7944  1
722  10054.209  1
723  10309.757  1
724  10057.425  1
725  10151.433  1
726  9643.4178  1
727  10219.966  1
728  10065.053  1
729  10529.71  1
730  10606.943  1
731  10532.305  1
732  10847.953  1
733  10048.703  1
734  10097.875  1
735  10734.673  1
736  11224.806  1
737  10431.74  1
738  10563.211  1
739  10521.19  1
740  9975.884  1
741  10522.774  1
742  11213.992  1
743  10717.963  1
744  10920.996  1
745  10662.508  1
746  10710.872  1
747  11448.998  1
748  11065.021  1
749  11474.139  1
750  10929.277  1
751  11267.019  1
752  11279.214  1
753  11311.733  1
754  11313.8  1
755  11319.937  1
756  11647.422  1
757  11833.416  1
758  11634.786  1
759  11798.394  1
760  11366.166  1
761  12169.422  1
762  12084.934  1
763  12373.165  1
764  11949.359  1
765  11817.956  1
766  12192.009  1
767  11975.899  1
768  12304.233  1
769  12385.897  1
770  12053.905  1
771  12578.644  1
772  12941.763  1
773  12641.929  1
774  13091.796  1
775  13256.147  1
776  13037.502  1
777  13356.864  1
778  12574.882  1
779  13431.902  1
780  12899.899  1
781  13206.179  1
782  13437.191  1
783  13790.306  1
784  13632.876  1
785  14128.773  1
786  13948.746  1
787  14450.076  1
788  13945.676  1
789  14342.434  1
790  14322.111  1
791  14177.418  1
792  14434.215  1
793  14679.855  1
794  14884.062  1
795  14712.779  1
796  14428.87  1
797  14601.527  1
798  15094.778  1
799  15086.739  1
800  16113.113  1
801  16070.947  1
802  15565.109  1
803  15858.524  1
804  16128.751  1
805  16704.232  1
806  16560.11  1
807  17253.62  1
808  16844.182  1
809  17222.954  1
810  17404.764  1
811  17922.993  1
812  17094.905  1
813  18170.505  1
814  18391.804  1
815  18392.737  1
816  18195.215  1
817  17292.026  1
818  18914.318  1
819  18491.173  1
820  18887.16  1
821  18689.985  1
822  18876.322  1
823  19810.576  1
824  18820.87  1
825  19305.171  1
826  19099.326  1
827  19814.577  1
828  20060.58  1
829  20216.441  1
830  19682.979  1
831  20288.571  1
832  20365.125  1
833  19946.783  1
834  19867.158  1
835  20698.158  1
836  21334.297  1
837  23005.902  1
838  23709.099  1
839  24945.116  1
840  25500.606  1
841  26102.404  1
842  26659.089  1
843  26526.065  1
844  28101.646  1
845  28217.121  1
846  26251.673  1
847  25247.808  1
848  24541.205  1
849  23051.227  1
850  22153.545  1
851  21976.896  1
852  20808.455  1
853  20772.219  1
854  20463.871  1
855  20352.798  1
856  19150.819  1
857  17976.209  1
858  16716.502  1
859  15989.558  1
860  16452.779  1
861  16369.805  1
862  16349.451  1
863  18074.591  1
864  21475.699  1
865  36551.362  1
866  139113.84  1
867  270499.58  1
868  129793.92  1
869  37269.85  1
870  18454.488  1
871  15313.479  1
872  13412.342  1
873  11973.891  1
874  12184.369  1
875  11384.238  1
876  12400.71  1
877  11127.277  1
878  10944.276  1
879  10846.423  1
880  10892.704  1
881  11286.078  1
882  10853.79  1
883  10912.622  1
884  11105.371  1
885  11350.915  1
886  11009.685  1
887  10746.389  1
888  11103.757  1
889  11045.101  1
890  11176.743  1
891  10830.184  1
892  11526.043  1
893  11385.453  1
894  11491.271  1
895  11339.1  1
896  11333.026  1
897  11455.709  1
898  11069.939  1
899  11230.462  1
900  11397.336  1
901  11893.151  1
902  11174.55  1
903  11749.592  1
904  11200.481  1
905  11541.865  1
906  11732.456  1
907  11758.676  1
908  11291.724  1
909  11603.65  1
910  11897.699  1
911  11914.486  1
912  11733.739  1
913  11630.576  1
914  12217.071  1
915  12239.791  1
916  11461.553  1
917  11855.337  1
918  11942.231  1
919  11853.887  1
920  12224.03  1
921  12761.662  1
922  12422.363  1
923  12065.632  1
924  11919.316  1
925  12180.412  1
926  12479.59  1
927  12202.442  1
928  12274.153  1
929  12194.267  1
930  12234.867  1
931  12542.494  1
932  12234.57  1
933  11909.042  1
934  12470.569  1
935  12234.538  1
936  12559.649  1
937  12349.001  1
938  12452.839  1
939  12520.689  1
940  12431.667  1
941  12491.849  1
942  12493.614  1
943  12583.896  1
944  13154.036  1
945  13021.328  1
946  12606.096  1
947  12654.017  1
948  12998.641  1
949  12859.057  1
950  13244.468  1
951  13026.704  1
952  12839.63  1
953  12851.988  1
954  12600.316  1
955  13143.428  1
956  13364.423  1
957  13072.868  1
958  14220.784  1
959  13273.253  1
960  13461.911  1
961  13491.651  1
962  13222.14  1
963  13531.196  1
964  13094.824  1
965  13567.274  1
966  13171.473  1
967  13529.032  1
968  13608.784  1
969  14246.182  1
970  13635.915  1
971  13402.312  1
972  13707.227  1
973  13495.55  1
974  13691.131  1
975  13785.714  1
976  14097.683  1
977  13911.72  1
978  13601.331  1
979  13874.506  1
980  14107.93  1
981  13722.269  1
982  14264.248  1
983  14126.092  1
984  14252.735  1
985  13926.824  1
986  14416.612  1
987  13850.387  1
988  13959.23  1
989  14001.932  1
990  13887.952  1
991  14130.07  1
992  14037.585  1
993  13632.483  1
994  14208.966  1
995  14543.488  1
996  14143.552  1
997  14599.988  1
998  14846.39  1
999  14913.329  1
1000  14930.683  1
1001  14861.751  1
1002  15026.779  1
1003  15252.009  1
1004  14371.59  1
1005  15303.742  1
1006  14594.669  1
1007  14968.836  1
1008  14652.808  1
1009  14256.399  1
1010  14473.817  1
1011  15089.588  1
1012  15605.015  1
1013  14854.218  1
1014  15487.746  1
1015  15739.947  1
1016  15808.612  1
1017  16832.849  1
1018  16183.124  1
1019  15733.074  1
1020  15928.73  1
1021  15510.186  1
1022  16117.657  1
1023  15538.695  1
1024  15518.329  1
1025  15265.134  1
1026  15273.099  1
1027  15305.36  1
1028  15568.561  1
